#string ID
concentrated sulfuric acid solution [H2SO4-H2O], 75%, liquid, 300K

#Palmer & Williams, 1975, Appl. Opt. 14, 208


#nr. of wavelength #inc. angles #aspect ratio #density [kg/m^3] #sub.temp #delta  #align
227     1     1     1600     0     1     0

#wavelength     real refractive index     imaginary refractive index
3.597e-07 1.452 1.00e-10
4.082e-07 1.438 1.00e-10
4.494e-07 1.432 1.00e-10
5.556e-07 1.431 2.35e-10
7.018e-07 1.428 2.07e-08
7.143e-07 1.427 2.79e-08
7.246e-07 1.427 3.58e-08
7.353e-07 1.427 4.80e-08
7.463e-07 1.427 6.83e-08
7.576e-07 1.427 7.84e-08
7.692e-07 1.427 8.20e-08
7.813e-07 1.427 8.39e-08
7.937e-07 1.427 8.46e-08
8.065e-07 1.427 8.79e-08
8.197e-07 1.427 9.98e-08
8.333e-07 1.426 1.24e-07
8.475e-07 1.426 1.58e-07
8.621e-07 1.425 1.83e-07
8.772e-07 1.425 2.02e-07
8.929e-07 1.425 2.33e-07
9.091e-07 1.424 2.84e-07
9.259e-07 1.424 3.62e-07
9.434e-07 1.423 6.05e-07
9.615e-07 1.423 1.03e-06
9.804e-07 1.422 1.41e-06
1.000e-06 1.422 1.53e-06
1.020e-06 1.421 1.52e-06
1.042e-06 1.421 1.48e-06
1.064e-06 1.420 1.50e-06
1.087e-06 1.419 1.60e-06
1.111e-06 1.418 1.84e-06
1.136e-06 1.417 2.46e-06
1.163e-06 1.416 4.05e-06
1.190e-06 1.416 4.95e-06
1.220e-06 1.415 5.63e-06
1.250e-06 1.413 6.94e-06
1.266e-06 1.413 7.75e-06
1.282e-06 1.412 8.93e-06
1.299e-06 1.411 1.05e-05
1.316e-06 1.411 1.27e-05
1.333e-06 1.410 1.59e-05
1.351e-06 1.410 1.98e-05
1.370e-06 1.409 2.59e-05
1.389e-06 1.408 3.89e-05
1.408e-06 1.407 6.16e-05
1.429e-06 1.406 8.78e-05
1.449e-06 1.406 1.02e-04
1.471e-06 1.405 1.10e-04
1.493e-06 1.404 1.17e-04
1.515e-06 1.403 1.25e-04
1.538e-06 1.403 1.38e-04
1.563e-06 1.402 1.55e-04
1.587e-06 1.400 1.76e-04
1.613e-06 1.399 2.02e-04
1.639e-06 1.398 2.34e-04
1.667e-06 1.398 2.72e-04
1.695e-06 1.397 3.14e-04
1.724e-06 1.396 3.61e-04
1.754e-06 1.394 4.24e-04
1.786e-06 1.393 4.86e-04
1.818e-06 1.392 5.37e-04
1.852e-06 1.391 5.95e-04
1.887e-06 1.389 7.96e-04
1.923e-06 1.388 1.11e-03
1.961e-06 1.386 1.24e-03
2.000e-06 1.384 1.26e-03
2.041e-06 1.382 1.30e-03
2.083e-06 1.380 1.35e-03
2.128e-06 1.377 1.43e-03
2.174e-06 1.374 1.54e-03
2.222e-06 1.370 1.67e-03
2.273e-06 1.367 1.86e-03
2.326e-06 1.362 2.09e-03
2.381e-06 1.358 2.41e-03
2.439e-06 1.352 2.97e-03
2.500e-06 1.344 3.76e-03
2.564e-06 1.332 4.44e-03
2.632e-06 1.320 5.12e-03
2.688e-06 1.308 5.66e-03
2.725e-06 1.293 6.00e-03
2.762e-06 1.279 1.90e-02
2.770e-06 1.277 2.30e-02
2.833e-06 1.272 5.20e-02
2.841e-06 1.273 5.60e-02
2.882e-06 1.277 7.30e-02
2.915e-06 1.284 8.20e-02
2.941e-06 1.288 8.60e-02
2.985e-06 1.292 9.30e-02
3.021e-06 1.294 9.90e-02
3.077e-06 1.296 1.09e-01
3.175e-06 1.306 1.31e-01
3.279e-06 1.325 1.50e-01
3.344e-06 1.341 1.59e-01
3.413e-06 1.357 1.59e-01
3.472e-06 1.370 1.61e-01
3.559e-06 1.388 1.53e-01
3.623e-06 1.394 1.43e-01
3.690e-06 1.397 1.36e-01
3.759e-06 1.396 1.30e-01
3.817e-06 1.396 1.28e-01
3.846e-06 1.395 1.27e-01
3.861e-06 1.395 1.27e-01
3.906e-06 1.395 1.27e-01
3.953e-06 1.396 1.27e-01
4.000e-06 1.398 1.26e-01
4.082e-06 1.400 1.24e-01
4.149e-06 1.399 1.21e-01
4.219e-06 1.405 1.17e-01
4.274e-06 1.397 1.10e-01
4.292e-06 1.395 1.09e-01
4.367e-06 1.386 1.13e-01
4.464e-06 1.384 1.19e-01
4.587e-06 1.386 1.21e-01
4.717e-06 1.384 1.17e-01
4.808e-06 1.379 1.16e-01
4.950e-06 1.366 1.18e-01
5.102e-06 1.353 1.28e-01
5.181e-06 1.347 1.35e-01
5.263e-06 1.342 1.44e-01
5.319e-06 1.339 1.51e-01
5.376e-06 1.336 1.60e-01
5.435e-06 1.336 1.71e-01
5.495e-06 1.337 1.82e-01
5.556e-06 1.341 1.94e-01
5.618e-06 1.350 2.06e-01
5.650e-06 1.356 2.09e-01
5.682e-06 1.361 2.12e-01
5.747e-06 1.371 2.20e-01
5.814e-06 1.392 2.25e-01
5.882e-06 1.410 2.15e-01
5.952e-06 1.420 2.03e-01
6.024e-06 1.427 1.91e-01
6.061e-06 1.430 1.84e-01
6.098e-06 1.433 1.75e-01
6.135e-06 1.434 1.64e-01
6.173e-06 1.428 1.52e-01
6.211e-06 1.422 1.44e-01
6.250e-06 1.413 1.38e-01
6.329e-06 1.399 1.30e-01
6.410e-06 1.384 1.25e-01
6.494e-06 1.368 1.23e-01
6.536e-06 1.361 1.22e-01
6.579e-06 1.351 1.21e-01
6.623e-06 1.340 1.22e-01
6.667e-06 1.331 1.26e-01
6.711e-06 1.323 1.30e-01
6.803e-06 1.308 1.37e-01
6.897e-06 1.297 1.43e-01
6.993e-06 1.272 1.43e-01
7.092e-06 1.249 1.58e-01
7.194e-06 1.222 1.73e-01
7.299e-06 1.192 1.95e-01
7.353e-06 1.173 2.11e-01
7.463e-06 1.142 2.62e-01
7.576e-06 1.133 3.23e-01
7.634e-06 1.136 3.51e-01
7.752e-06 1.144 3.97e-01
7.874e-06 1.145 4.45e-01
8.000e-06 1.151 5.13e-01
8.065e-06 1.161 5.47e-01
8.130e-06 1.179 5.93e-01
8.264e-06 1.241 6.63e-01
8.403e-06 1.320 7.19e-01
8.547e-06 1.421 7.58e-01
8.621e-06 1.479 7.61e-01
8.696e-06 1.545 7.55e-01
8.850e-06 1.643 6.81e-01
8.929e-06 1.666 6.34e-01
9.009e-06 1.669 5.90e-01
9.091e-06 1.655 5.56e-01
9.174e-06 1.626 5.40e-01
9.259e-06 1.590 5.60e-01
9.346e-06 1.589 6.12e-01
9.434e-06 1.624 6.68e-01
9.524e-06 1.702 7.11e-01
9.615e-06 1.807 7.08e-01
9.709e-06 1.907 6.37e-01
9.804e-06 1.944 5.38e-01
9.901e-06 1.947 4.53e-01
1.010e-05 1.882 3.38e-01
1.020e-05 1.849 3.11e-01
1.031e-05 1.822 2.92e-01
1.038e-05 1.807 2.82e-01
1.042e-05 1.788 2.77e-01
1.053e-05 1.756 2.71e-01
1.064e-05 1.717 2.75e-01
1.075e-05 1.678 3.01e-01
1.087e-05 1.663 3.51e-01
1.099e-05 1.676 4.10e-01
1.111e-05 1.739 4.63e-01
1.124e-05 1.842 4.64e-01
1.136e-05 1.904 3.86e-01
1.144e-05 1.911 3.41e-01
1.149e-05 1.916 3.13e-01
1.176e-05 1.869 2.16e-01
1.190e-05 1.844 1.94e-01
1.220e-05 1.796 1.68e-01
1.250e-05 1.757 1.58e-01
1.266e-05 1.741 1.57e-01
1.282e-05 1.726 1.57e-01
1.316e-05 1.701 1.60e-01
1.351e-05 1.681 1.65e-01
1.389e-05 1.663 1.71e-01
1.429e-05 1.643 1.73e-01
1.471e-05 1.613 1.83e-01
1.493e-05 1.596 1.91e-01
1.538e-05 1.551 2.21e-01
1.587e-05 1.512 2.99e-01
1.613e-05 1.512 3.52e-01
1.667e-05 1.542 4.79e-01
1.695e-05 1.621 5.64e-01
1.724e-05 1.741 5.94e-01
1.754e-05 1.869 5.54e-01
1.786e-05 1.939 4.57e-01
1.818e-05 1.946 3.62e-01
1.852e-05 1.926 2.99e-01
1.887e-05 1.892 2.61e-01
1.961e-05 1.842 2.38e-01
2.000e-05 1.823 2.35e-01
2.041e-05 1.804 2.40e-01
2.083e-05 1.782 2.57e-01
2.128e-05 1.781 2.90e-01
2.222e-05 1.848 3.29e-01
2.273e-05 1.881 3.20e-01
2.326e-05 1.918 3.00e-01
2.439e-05 1.939 2.26e-01
2.500e-05 1.930 2.00e-01
