#string ID
water ice (Pollack et al. 1994, ApJ 421, 615; download from http://www2.mpia-hd.mpg.de/home/henning/Dust_opacities/Opacities/RI/old_ri.html)

#nr. of wavelength #inc. angles #aspect ratio #density [kg/m^3] #sub.temp #delta  #align
74     1     1     920     150     0     0

#wavelength       real refractive index    imaginary refractive index
1.000e-07 1.39783 7.86913e-02
1.110e-07 1.39691 7.94906e-02
1.250e-07 1.40184 8.24212e-02
1.370e-07 1.34337 1.92973e-01
1.435e-07 1.33336 2.71691e-01
1.550e-07 1.60759 1.52189e-01
1.650e-07 1.60061 5.29649e-03
2.000e-07 1.40453 1.72233e-08
2.270e-07 1.36410 1.09974e-08
2.500e-07 1.34764 7.84843e-09
2.630e-07 1.34213 7.55292e-09
2.780e-07 1.33772 6.83166e-09
2.970e-07 1.33370 5.75290e-09
3.000e-07 1.33313 5.59695e-09
4.600e-07 1.30899 1.98865e-09
6.100e-07 1.30330 3.91671e-09
1.000e-06 1.29957 1.14438e-06
1.504e-06 1.28229 6.64571e-04
1.850e-06 1.27800 7.64117e-05
2.000e-06 1.27500 5.87703e-04
2.245e-06 1.25464 1.74641e-04
2.733e-06 1.14350 1.73998e-02
2.872e-06 1.02798 2.64839e-01
3.027e-06 1.07755 4.45678e-01
3.144e-06 1.44473 2.64826e-01
3.733e-06 1.40836 5.54943e-03
4.561e-06 1.34177 2.23176e-02
5.350e-06 1.30779 1.34546e-02
6.000e-06 1.29513 5.96270e-02
7.000e-06 1.31375 4.43540e-02
8.000e-06 1.30078 3.85740e-02
8.500e-06 1.30587 3.10012e-02
8.750e-06 1.30475 3.01071e-02
9.000e-06 1.29867 3.13483e-02
1.000e-05 1.20054 6.69806e-02
1.050e-05 1.11864 1.34794e-01
1.100e-05 1.07405 2.28637e-01
1.150e-05 1.12789 2.81270e-01
1.250e-05 1.35827 4.09989e-01
1.300e-05 1.46470 3.59985e-01
1.350e-05 1.51696 2.74004e-01
1.400e-05 1.55468 2.18299e-01
1.500e-05 1.58971 1.65368e-01
1.550e-05 1.57923 1.48074e-01
1.650e-05 1.54329 1.14091e-01
1.700e-05 1.52980 9.87086e-02
1.850e-05 1.51131 6.62512e-02
1.950e-05 1.50563 5.21839e-02
2.050e-05 1.49729 4.01728e-02
2.200e-05 1.47285 2.64422e-02
2.350e-05 1.44088 2.00868e-02
2.600e-05 1.39253 2.86894e-02
2.700e-05 1.37928 3.75413e-02
2.900e-05 1.35798 6.12621e-02
3.000e-05 1.34503 7.26325e-02
3.500e-05 1.22374 1.44533e-01
4.050e-05 1.19018 4.65633e-01
5.000e-05 1.58754 5.87144e-01
8.230e-05 1.88046 1.71967e-01
1.000e-04 1.83999 1.20216e-01
1.700e-04 1.83202 6.49168e-02
2.681e-04 1.80146 1.42908e-02
3.004e-04 1.79453 1.03040e-02
4.000e-04 1.79316 8.05683e-03
5.000e-04 1.79612 6.17244e-03
8.000e-04 1.79519 4.05707e-03
1.000e-03 1.79428 3.24115e-03
1.300e-03 1.79420 2.56217e-03
2.000e-03 1.79468 1.65727e-03
5.000e-03 1.79456 7.05030e-04
1.000e-02 1.79457 4.50000e-04
2.000e-02 1.79457 3.52481e-04
5.000e-02 1.79457 1.26921e-04
1.000e-01 1.79457 4.50000e-05
